# %ECSV 0.9
# ---
# datatype:
# - {name: wavelength, unit: micron, datatype: float64}
# - {name: flux, unit: Jy, datatype: float64}
# - {name: sigma, unit: Jy, datatype: float64}
wavelength flux sigma
  2.6    0.088   0.0088        
  2.62   0.092   0.0092        
  2.64   0.092   0.0092        
  2.66   0.091   0.009099999   
  2.68   0.089   0.0089        
  2.7    0.091   0.009099999   
  2.72   0.091   0.009099999   
  2.74   0.09    0.009000001   
  2.76   0.092   0.0092        
  2.78   0.09    0.009000001   
  2.8    0.091   0.009099999   
  2.82   0.09    0.009000001   
  2.84   0.088   0.0088        
  2.86   0.088   0.0088        
  2.88   0.087   0.0087        
  2.9    0.086   0.0086        
  2.92   0.085   0.0085        
  2.94   0.084   0.0084        
  2.96   0.083   0.0083        
  2.98   0.082   0.0082        
  3.0    0.081   0.0081        
  3.02   0.082   0.0082        
  3.04   0.081   0.0081        
  3.06   0.08    0.007999999   
  3.08   0.079   0.007900001   
  3.1    0.082   0.0082        
  3.12   0.083   0.0083        
  3.14   0.085   0.0085        
  3.16   0.086   0.0086        
  3.18   0.088   0.0088        
  3.2    0.092   0.0092        
  3.22   0.099   0.0099        
  3.24   0.112   0.0112000005  
  3.26   0.133   0.0133        
  3.28   0.154   0.0154        
  3.3    0.158   0.015800001   
  3.32   0.135   0.0135        
  3.34   0.115   0.0115        
  3.36   0.107   0.0107        
  3.38   0.105   0.0105        
  3.4    0.108   0.0108        
  3.42   0.107   0.0107        
  3.44   0.105   0.0105        
  3.46   0.102   0.010199999   
  3.48   0.099   0.0099        
  3.5    0.098   0.0098        
  3.52   0.096   0.0096        
  3.54   0.093   0.0093        
  3.56   0.093   0.0093        
  3.58   0.09    0.009000001   
  3.6    0.089   0.0089        
  3.62   0.087   0.0087        
  3.64   0.086   0.0086        
  3.66   0.087   0.0087        
  3.68   0.086   0.0086        
  3.7    0.086   0.0086        
  3.72   0.087   0.0087        
  3.74   0.088   0.0088        
  3.76   0.087   0.0087        
  3.78   0.088   0.0088        
  3.8    0.087   0.0087        
  3.82   0.087   0.0087        
  3.84   0.087   0.0087        
  3.86   0.087   0.0087        
  3.88   0.086   0.0086        
  3.9    0.087   0.0087        
  3.92   0.087   0.0087        
  3.94   0.086   0.0086        
  3.96   0.086   0.0086        
  3.98   0.086   0.0086        
  4.0    0.087   0.0087        
  4.02   0.09    0.009000001   
  4.04   0.099   0.0099        
  4.06   0.104   0.0104        
  4.08   0.092   0.0092        
  4.1    0.086   0.0086        
  4.12   0.083   0.0083        
  4.14   0.081   0.0081        
  4.16   0.079   0.007900001   
  4.18   0.08    0.007999999   
  4.2    0.077   0.0077        
  4.22   0.077   0.0077        
  4.24   0.074   0.0074        
  4.26   0.072   0.0072        
  4.28   0.071   0.0071        
  4.3    0.074   0.0074        
  4.32   0.077   0.0077        
  4.34   0.078   0.0078000003  
  4.36   0.078   0.0078000003  
  4.38   0.077   0.0077        
  4.4    0.075   0.0075000003  
  4.42   0.074   0.0074        
  4.44   0.073   0.0072999997  
  4.46   0.071   0.0071        
  4.48   0.07    0.007         
  4.5    0.069   0.0069        
  4.52   0.069   0.0069        
  4.54   0.068   0.0068000006  
  4.56   0.065   0.0064999997  
  4.58   0.065   0.0064999997  
  4.6    0.065   0.0064999997  
  4.62   0.065   0.0064999997  
  4.64   0.069   0.0069        
  4.66   0.071   0.0071        
  4.68   0.07    0.007         
  4.7    0.071   0.0071        
  4.72   0.069   0.0069        
  4.74   0.069   0.0069        
  4.76   0.067   0.0067000003  
  4.78   0.066   0.0066        
  4.8    0.066   0.0066        
  4.82   0.067   0.0067000003  
  4.84   0.067   0.0067000003  
  4.86   0.068   0.0068000006  
  4.88   0.066   0.0066        
  4.9    0.065   0.0064999997  
  4.92   0.064   0.0064000003  
  4.94   0.065   0.0064999997  
  4.96   0.064   0.0064000003  
  4.98   0.065   0.0064999997  
  5.0    0.065   0.0064999997  
  5.02   0.066   0.0066        
  5.04   0.068   0.0068000006  
  5.06   0.071   0.0071        
  5.08   0.073   0.0072999997  
  5.1    0.077   0.0077        
  5.12   0.082   0.0082        
  5.14   0.088   0.0088        
  5.16   0.095   0.0095        
  5.18   0.105   0.0105        
  5.2    0.116   0.0116        
  5.22   0.13    0.012999999   
  5.24   0.137   0.013699999   
  5.26   0.133   0.0133        
  5.28   0.124   0.012399999   
  5.3    0.122   0.0122        
  5.32   0.131   0.0131        
  5.34   0.135   0.0135        
  5.36   0.121   0.0121        
  5.38   0.102   0.010199999   
  5.4    0.097   0.0097        
  5.42   0.1     0.01          
  5.44   0.101   0.010100001   
  5.46   0.103   0.0103        
  5.48   0.11    0.011         
  5.5    0.119   0.0119        
  5.52   0.122   0.0122        
  5.54   0.121   0.0121        
  5.56   0.123   0.0123000005  
  5.58   0.132   0.0132        
  5.6    0.147   0.0147        
  5.62   0.165   0.0165        
  5.64   0.18    0.018000001   
  5.66   0.189   0.0189        
  5.68   0.195   0.019499999   
  5.7    0.2     0.02          
  5.72   0.2     0.02          
  5.74   0.195   0.019499999   
  5.76   0.188   0.0188        
  5.78   0.181   0.018099999   
  5.8    0.175   0.0175        
  5.82   0.176   0.0176        
  5.84   0.183   0.0183        
  5.86   0.19    0.019         
  5.88   0.196   0.0196        
  5.9    0.195   0.019499999   
  5.92   0.194   0.0194        
  5.94   0.198   0.0198        
  5.96   0.217   0.021699999   
  5.98   0.248   0.024799999   
  6.0    0.278   0.0278        
  6.02   0.298   0.029800002   
  6.04   0.307   0.030700002   
  6.06   0.313   0.0313        
  6.08   0.327   0.0327        
  6.1    0.363   0.0363        
  6.12   0.431   0.0431        
  6.14   0.548   0.054799996   
  6.16   0.716   0.071600005   
  6.18   0.889   0.0889        
  6.2    1.0     0.1           
  6.22   1.018   0.1018        
  6.24   0.96    0.096         
  6.26   0.865   0.086500004   
  6.28   0.765   0.0765        
  6.3    0.676   0.0676        
  6.32   0.603   0.0603        
  6.34   0.545   0.054500002   
  6.36   0.501   0.0501        
  6.38   0.466   0.0466        
  6.4    0.435   0.0435        
  6.42   0.407   0.0407        
  6.44   0.383   0.0383        
  6.46   0.366   0.0366        
  6.48   0.355   0.035499997   
  6.5    0.344   0.0344        
  6.52   0.337   0.0337        
  6.54   0.333   0.0333        
  6.56   0.335   0.0335        
  6.58   0.343   0.0343        
  6.6    0.351   0.0351        
  6.62   0.36    0.036000002   
  6.64   0.366   0.0366        
  6.66   0.368   0.0368        
  6.68   0.368   0.0368        
  6.7    0.37    0.037         
  6.72   0.37    0.037         
  6.74   0.369   0.0369        
  6.76   0.369   0.0369        
  6.78   0.372   0.0372        
  6.8    0.375   0.0375        
  6.82   0.38    0.038         
  6.84   0.385   0.0385        
  6.86   0.394   0.0394        
  6.88   0.413   0.0413        
  6.9    0.434   0.043399997   
  6.92   0.446   0.044600002   
  6.94   0.479   0.0479        
  6.96   0.573   0.0573        
  6.98   0.657   0.0657        
  7.0    0.646   0.064600006   
  7.02   0.571   0.057099998   
  7.04   0.524   0.0524        
  7.06   0.523   0.0523        
  7.08   0.534   0.0534        
  7.1    0.544   0.054400004   
  7.12   0.551   0.0551        
  7.14   0.557   0.055699997   
  7.16   0.564   0.0564        
  7.18   0.574   0.0574        
  7.2    0.589   0.0589        
  7.22   0.609   0.060900003   
  7.24   0.633   0.0633        
  7.26   0.657   0.0657        
  7.28   0.682   0.0682        
  7.3    0.713   0.0713        
  7.32   0.75    0.075         
  7.34   0.794   0.0794        
  7.36   0.843   0.0843        
  7.38   0.897   0.0897        
  7.4    0.956   0.095599994   
  7.42   1.021   0.1021        
  7.44   1.094   0.1094        
  7.46   1.171   0.1171        
  7.48   1.251   0.1251        
  7.5    1.333   0.13329999    
  7.52   1.417   0.1417        
  7.54   1.498   0.1498        
  7.56   1.57    0.157         
  7.58   1.627   0.1627        
  7.6    1.666   0.1666        
  7.62   1.683   0.1683        
  7.64   1.681   0.1681        
  7.66   1.666   0.1666        
  7.68   1.646   0.1646        
  7.7    1.627   0.1627        
  7.72   1.615   0.1615        
  7.74   1.61    0.161         
  7.76   1.607   0.1607        
  7.78   1.604   0.1604        
  7.8    1.595   0.1595        
  7.82   1.578   0.15779999    
  7.84   1.552   0.1552        
  7.86   1.517   0.15169999    
  7.88   1.472   0.1472        
  7.9    1.419   0.1419        
  7.92   1.361   0.1361        
  7.94   1.302   0.1302        
  7.96   1.244   0.1244        
  7.98   1.19    0.119         
  8.0    1.139   0.113900006   
  8.02   1.092   0.1092        
  8.04   1.046   0.1046        
  8.06   1.004   0.10039999    
  8.08   0.964   0.0964        
  8.1    0.93    0.093         
  8.12   0.901   0.090100005   
  8.14   0.879   0.0879        
  8.16   0.864   0.0864        
  8.18   0.853   0.0853        
  8.2    0.846   0.0846        
  8.22   0.842   0.0842        
  8.24   0.84    0.084         
  8.26   0.842   0.0842        
  8.28   0.845   0.0845        
  8.3    0.849   0.0849        
  8.32   0.853   0.0853        
  8.34   0.857   0.0857        
  8.36   0.86    0.086         
  8.38   0.863   0.0863        
  8.4    0.869   0.0869        
  8.42   0.878   0.0878        
  8.44   0.892   0.089200005   
  8.46   0.912   0.0912        
  8.48   0.936   0.0936        
  8.5    0.962   0.096200004   
  8.52   0.986   0.0986        
  8.54   1.006   0.100600004   
  8.56   1.019   0.101900004   
  8.58   1.024   0.102400005   
  8.6    1.019   0.101900004   
  8.62   1.003   0.1003        
  8.64   0.976   0.0976        
  8.66   0.939   0.0939        
  8.68   0.893   0.0893        
  8.7    0.844   0.0844        
  8.72   0.793   0.0793        
  8.74   0.743   0.0743        
  8.76   0.695   0.0695        
  8.78   0.65    0.065         
  8.8    0.608   0.060799997   
  8.82   0.57    0.057         
  8.84   0.535   0.053500004   
  8.86   0.505   0.050499998   
  8.88   0.481   0.048100002   
  8.9    0.461   0.046099998   
  8.92   0.447   0.0447        
  8.94   0.437   0.043700002   
  8.96   0.43    0.043         
  8.98   0.421   0.0421        
  9.0    0.41    0.041         
  9.02   0.395   0.0395        
  9.04   0.379   0.0379        
  9.06   0.364   0.036399998   
  9.08   0.354   0.0354        
  9.1    0.347   0.0347        
  9.12   0.342   0.0342        
  9.14   0.338   0.0338        
  9.16   0.334   0.0334        
  9.18   0.331   0.0331        
  9.2    0.329   0.032899998   
  9.22   0.327   0.0327        
  9.24   0.324   0.0324        
  9.26   0.321   0.0321        
  9.28   0.318   0.031799998   
  9.3    0.315   0.0315        
  9.32   0.313   0.0313        
  9.34   0.311   0.0311        
  9.36   0.308   0.0308        
  9.38   0.305   0.0305        
  9.4    0.303   0.0303        
  9.42   0.301   0.0301        
  9.44   0.301   0.0301        
  9.46   0.301   0.0301        
  9.48   0.302   0.030199999   
  9.5    0.302   0.030199999   
  9.52   0.301   0.0301        
  9.54   0.3     0.030000001   
  9.56   0.302   0.030199999   
  9.58   0.307   0.030700002   
  9.6    0.315   0.0315        
  9.62   0.325   0.0325        
  9.64   0.333   0.0333        
  9.66   0.336   0.0336        
  9.68   0.333   0.0333        
  9.7    0.324   0.0324        
  9.72   0.313   0.0313        
  9.74   0.303   0.0303        
  9.76   0.295   0.029499998   
  9.78   0.29    0.029         
  9.8    0.287   0.0287        
  9.82   0.286   0.028600002   
  9.84   0.285   0.0285        
  9.86   0.285   0.0285        
  9.88   0.285   0.0285        
  9.9    0.286   0.028600002   
  9.92   0.286   0.028600002   
  9.94   0.287   0.0287        
  9.96   0.288   0.0288        
  9.98   0.289   0.028900001   
  10.0   0.29    0.029         
  10.02  0.292   0.029199999   
  10.04  0.294   0.0294        
  10.06  0.296   0.0296        
  10.08  0.297   0.0297        
  10.1   0.297   0.0297        
  10.12  0.297   0.0297        
  10.14  0.297   0.0297        
  10.16  0.297   0.0297        
  10.18  0.298   0.029800002   
  10.2   0.3     0.030000001   
  10.22  0.301   0.0301        
  10.24  0.304   0.030399999   
  10.26  0.306   0.0306        
  10.28  0.309   0.030899998   
  10.3   0.313   0.0313        
  10.32  0.316   0.031600002   
  10.34  0.32    0.031999998   
  10.36  0.325   0.0325        
  10.38  0.33    0.033         
  10.4   0.337   0.0337        
  10.42  0.345   0.0345        
  10.44  0.356   0.0356        
  10.46  0.369   0.0369        
  10.48  0.383   0.0383        
  10.5   0.397   0.0397        
  10.52  0.409   0.0409        
  10.54  0.418   0.0418        
  10.56  0.426   0.0426        
  10.58  0.431   0.0431        
  10.6   0.435   0.0435        
  10.62  0.438   0.0438        
  10.64  0.441   0.0441        
  10.66  0.443   0.044299997   
  10.68  0.445   0.0445        
  10.7   0.448   0.044800002   
  10.72  0.452   0.045199998   
  10.74  0.455   0.045500003   
  10.76  0.457   0.0457        
  10.78  0.458   0.0458        
  10.8   0.46    0.046         
  10.82  0.462   0.0462        
  10.84  0.467   0.0467        
  10.86  0.476   0.0476        
  10.88  0.491   0.0491        
  10.9   0.511   0.051099997   
  10.92  0.537   0.0537        
  10.94  0.569   0.056900002   
  10.96  0.605   0.060500003   
  10.98  0.641   0.0641        
  11.0   0.675   0.0675        
  11.02  0.703   0.0703        
  11.04  0.728   0.072799996   
  11.06  0.756   0.0756        
  11.08  0.798   0.079799995   
  11.1   0.872   0.0872        
  11.12  0.989   0.098900005   
  11.14  1.156   0.115600005   
  11.16  1.36    0.136         
  11.18  1.575   0.1575        
  11.2   1.768   0.1768        
  11.22  1.904   0.1904        
  11.24  1.966   0.19659999    
  11.26  1.955   0.1955        
  11.28  1.89    0.189         
  11.3   1.794   0.1794        
  11.32  1.685   0.16849999    
  11.34  1.578   0.15779999    
  11.36  1.479   0.1479        
  11.38  1.389   0.13890001    
  11.4   1.31    0.131         
  11.42  1.239   0.1239        
  11.44  1.176   0.1176        
  11.46  1.121   0.112100005   
  11.48  1.072   0.107200004   
  11.5   1.031   0.1031        
  11.52  0.996   0.0996        
  11.54  0.966   0.0966        
  11.56  0.939   0.0939        
  11.58  0.914   0.0914        
  11.6   0.891   0.089099996   
  11.62  0.87    0.087         
  11.64  0.853   0.0853        
  11.66  0.841   0.0841        
  11.68  0.833   0.0833        
  11.7   0.829   0.0829        
  11.72  0.827   0.0827        
  11.74  0.827   0.0827        
  11.76  0.83    0.083         
  11.78  0.836   0.0836        
  11.8   0.845   0.0845        
  11.82  0.859   0.0859        
  11.84  0.876   0.0876        
  11.86  0.896   0.089600004   
  11.88  0.917   0.0917        
  11.9   0.937   0.0937        
  11.92  0.955   0.0955        
  11.94  0.969   0.0969        
  11.96  0.98    0.098000005   
  11.98  0.986   0.0986        
  12.0   0.989   0.098900005   
  12.02  0.988   0.098799996   
  12.04  0.985   0.0985        
  12.06  0.981   0.0981        
  12.08  0.976   0.0976        
  12.1   0.97    0.097         
  12.12  0.966   0.0966        
  12.14  0.963   0.0963        
  12.16  0.964   0.0964        
  12.18  0.971   0.097100005   
  12.2   0.985   0.0985        
  12.22  1.007   0.1007        
  12.24  1.032   0.103199996   
  12.26  1.059   0.105900005   
  12.28  1.082   0.1082        
  12.3   1.1     0.11          
  12.32  1.112   0.1112        
  12.34  1.121   0.112100005   
  12.36  1.13    0.113         
  12.38  1.141   0.1141        
  12.4   1.156   0.115600005   
  12.42  1.174   0.117400005   
  12.44  1.196   0.1196        
  12.46  1.219   0.1219        
  12.48  1.245   0.1245        
  12.5   1.272   0.12719999    
  12.52  1.301   0.1301        
  12.54  1.331   0.1331        
  12.56  1.362   0.1362        
  12.58  1.393   0.1393        
  12.6   1.423   0.1423        
  12.62  1.45    0.14500001    
  12.64  1.472   0.1472        
  12.66  1.495   0.1495        
  12.68  1.529   0.15290001    
  12.7   1.595   0.1595        
  12.72  1.714   0.1714        
  12.74  1.901   0.1901        
  12.76  2.143   0.21429999    
  12.78  2.387   0.2387        
  12.8   2.553   0.2553        
  12.82  2.565   0.2565        
  12.84  2.399   0.2399        
  12.86  2.091   0.20910001    
  12.88  1.729   0.17289999    
  12.9   1.406   0.1406        
  12.92  1.183   0.1183        
  12.94  1.064   0.1064        
  12.96  1.017   0.10169999    
  12.98  1.0     0.1           
  13.0   0.989   0.098900005   
  13.02  0.978   0.0978        
  13.04  0.968   0.0968        
  13.06  0.963   0.0963        
  13.08  0.961   0.0961        
  13.1   0.96    0.096         
  13.12  0.96    0.096         
  13.14  0.961   0.0961        
  13.16  0.962   0.096200004   
  13.18  0.962   0.096200004   
  13.2   0.963   0.0963        
  13.22  0.963   0.0963        
  13.24  0.963   0.0963        
  13.26  0.963   0.0963        
  13.28  0.964   0.0964        
  13.3   0.964   0.0964        
  13.32  0.964   0.0964        
  13.34  0.964   0.0964        
  13.36  0.965   0.096499994   
  13.38  0.966   0.0966        
  13.4   0.967   0.0967        
  13.42  0.969   0.0969        
  13.44  0.972   0.0972        
  13.46  0.976   0.0976        
  13.48  0.981   0.0981        
  13.5   0.987   0.0987        
  13.52  0.991   0.0991        
  13.54  0.995   0.0995        
  13.56  0.996   0.0996        
  13.58  0.993   0.0993        
  13.6   0.988   0.098799996   
  13.62  0.982   0.0982        
  13.64  0.975   0.097500004   
  13.66  0.969   0.0969        
  13.68  0.963   0.0963        
  13.7   0.958   0.0958        
  13.72  0.954   0.0954        
  13.74  0.951   0.0951        
  13.76  0.948   0.0948        
  13.78  0.945   0.0945        
  13.8   0.943   0.0943        
  13.82  0.943   0.0943        
  13.84  0.945   0.0945        
  13.86  0.947   0.0947        
  13.88  0.95    0.095         
  13.9   0.953   0.095300004   
  13.92  0.957   0.0957        
  13.94  0.961   0.0961        
  13.96  0.965   0.096499994   
  13.98  0.969   0.0969        
  14.0   0.972   0.0972        
  14.02  0.976   0.0976        
  14.04  0.98    0.098000005   
  14.06  0.985   0.0985        
  14.08  0.991   0.0991        
  14.1   0.999   0.0999        
  14.12  1.008   0.1008        
  14.14  1.018   0.1018        
  14.16  1.029   0.102900006   
  14.18  1.038   0.1038        
  14.2   1.047   0.10470001    
  14.22  1.053   0.105299994   
  14.24  1.058   0.105799995   
  14.26  1.06    0.10599999    
  14.28  1.06    0.10599999    
  14.3   1.058   0.105799995   
  14.32  1.054   0.1054        
  14.34  1.049   0.1049        
  14.36  1.043   0.1043        
  14.38  1.035   0.10349999    
  14.4   1.028   0.1028        
  14.42  1.02    0.102         
  14.44  1.013   0.1013        
  14.46  1.006   0.100600004   
  14.48  1.001   0.1001        
  14.5   0.997   0.0997        
  14.52  0.995   0.0995        
  14.54  0.993   0.0993        
  14.56  0.992   0.099199995   
  14.58  0.992   0.099199995   
  14.6   0.992   0.099199995   
  14.62  0.993   0.0993        
  14.64  0.994   0.0994        
  14.66  0.995   0.0995        
  14.68  0.996   0.0996        
  14.7   0.997   0.0997        
  14.72  0.998   0.099800006   
  14.74  0.998   0.099800006   
  14.76  0.999   0.0999        
  14.78  1.001   0.1001        
  14.8   1.002   0.1002        
  14.82  1.004   0.10039999    
  14.84  1.006   0.100600004   
  14.86  1.008   0.1008        
  14.88  1.01    0.100999996   
  14.9   1.012   0.1012        
  14.92  1.015   0.1015        
  14.94  1.017   0.10169999    
  14.96  1.019   0.101900004   
  14.98  1.021   0.1021        
  15.0   1.022   0.102199994   
  15.02  1.024   0.102400005   
  15.04  1.025   0.1025        
  15.06  1.027   0.102699995   
  15.08  1.028   0.1028        
  15.1   1.03    0.103         
  15.12  1.032   0.103199996   
  15.14  1.034   0.10340001    
  15.16  1.036   0.1036        
  15.18  1.04    0.103999995   
  15.2   1.044   0.1044        
  15.22  1.048   0.1048        
  15.24  1.053   0.105299994   
  15.26  1.057   0.1057        
  15.28  1.061   0.1061        
  15.3   1.065   0.10650001    
  15.32  1.069   0.1069        
  15.34  1.073   0.1073        
  15.36  1.079   0.1079        
  15.38  1.087   0.1087        
  15.4   1.098   0.1098        
  15.42  1.113   0.11130001    
  15.44  1.137   0.113699995   
  15.46  1.171   0.1171        
  15.48  1.217   0.121700004   
  15.5   1.273   0.1273        
  15.52  1.33    0.133         
  15.54  1.379   0.1379        
  15.56  1.409   0.1409        
  15.58  1.413   0.1413        
  15.6   1.393   0.1393        
  15.62  1.353   0.13530001    
  15.64  1.306   0.1306        
  15.66  1.261   0.1261        
  15.68  1.225   0.1225        
  15.7   1.202   0.1202        
  15.72  1.192   0.119200006   
  15.74  1.192   0.119200006   
  15.76  1.197   0.1197        
  15.78  1.205   0.120500006   
  15.8   1.214   0.1214        
  15.82  1.221   0.122099996   
  15.84  1.228   0.12280001    
  15.86  1.234   0.123399995   
  15.88  1.24    0.124         
  15.9   1.245   0.1245        
  15.92  1.251   0.1251        
  15.94  1.256   0.12560001    
  15.96  1.261   0.1261        
  15.98  1.265   0.1265        
  16.0   1.269   0.1269        
  16.02  1.272   0.12719999    
  16.04  1.274   0.12740001    
  16.06  1.277   0.1277        
  16.08  1.28    0.12799999    
  16.1   1.285   0.1285        
  16.12  1.291   0.1291        
  16.14  1.299   0.12990001    
  16.16  1.309   0.1309        
  16.18  1.321   0.1321        
  16.2   1.335   0.13350001    
  16.22  1.352   0.1352        
  16.24  1.373   0.1373        
  16.26  1.4     0.14          
  16.28  1.431   0.1431        
  16.3   1.468   0.14680001    
  16.32  1.51    0.151         
  16.34  1.554   0.15540001    
  16.36  1.6     0.16          
  16.38  1.646   0.1646        
  16.4   1.688   0.1688        
  16.42  1.723   0.17230001    
  16.44  1.749   0.1749        
  16.46  1.762   0.1762        
  16.48  1.762   0.1762        
  16.5   1.751   0.1751        
  16.52  1.732   0.1732        
  16.54  1.709   0.1709        
  16.56  1.688   0.1688        
  16.58  1.67    0.167         
  16.6   1.659   0.1659        
  16.62  1.654   0.1654        
  16.64  1.656   0.1656        
  16.66  1.662   0.1662        
  16.68  1.671   0.1671        
  16.7   1.681   0.1681        
  16.72  1.691   0.1691        
  16.74  1.699   0.1699        
  16.76  1.705   0.17050001    
  16.78  1.711   0.17109999    
  16.8   1.715   0.1715        
  16.82  1.719   0.1719        
  16.84  1.722   0.1722        
  16.86  1.728   0.1728        
  16.88  1.739   0.1739        
  16.9   1.759   0.1759        
  16.92  1.792   0.17920001    
  16.94  1.838   0.18380001    
  16.96  1.895   0.1895        
  16.98  1.956   0.1956        
  17.0   2.013   0.2013        
  17.02  2.055   0.2055        
  17.04  2.075   0.20750001    
  17.06  2.072   0.2072        
  17.08  2.046   0.2046        
  17.1   2.006   0.2006        
  17.12  1.96    0.19600001    
  17.14  1.918   0.1918        
  17.16  1.886   0.1886        
  17.18  1.865   0.1865        
  17.2   1.855   0.1855        
  17.22  1.854   0.1854        
  17.24  1.857   0.1857        
  17.26  1.863   0.18630001    
  17.28  1.872   0.1872        
  17.3   1.881   0.18810001    
  17.32  1.89    0.189         
  17.34  1.898   0.1898        
  17.36  1.901   0.1901        
  17.38  1.9     0.19          
  17.4   1.893   0.1893        
  17.42  1.88    0.188         
  17.44  1.862   0.1862        
  17.46  1.841   0.1841        
  17.48  1.818   0.1818        
  17.5   1.795   0.1795        
  17.52  1.775   0.1775        
  17.54  1.757   0.1757        
  17.56  1.743   0.1743        
  17.58  1.734   0.1734        
  17.6   1.728   0.1728        
  17.62  1.725   0.1725        
  17.64  1.725   0.1725        
  17.66  1.727   0.1727        
  17.68  1.729   0.17289999    
  17.7   1.732   0.1732        
  17.72  1.736   0.17359999    
  17.74  1.739   0.1739        
  17.76  1.742   0.1742        
  17.78  1.745   0.1745        
  17.8   1.748   0.17480001    
  17.82  1.752   0.1752        
  17.84  1.756   0.1756        
  17.86  1.759   0.1759        
  17.88  1.761   0.1761        
  17.9   1.76    0.176         
  17.92  1.756   0.1756        
  17.94  1.75    0.175         
  17.96  1.741   0.17410001    
  17.98  1.732   0.1732        
  18.0   1.723   0.17230001    
  18.02  1.717   0.1717        
  18.04  1.712   0.1712        
  18.06  1.71    0.171         
  18.08  1.71    0.171         
  18.1   1.711   0.17109999    
  18.12  1.713   0.17130001    
  18.14  1.716   0.1716        
  18.16  1.72    0.172         
  18.18  1.723   0.17230001    
  18.2   1.727   0.1727        
  18.22  1.731   0.1731        
  18.24  1.734   0.1734        
  18.26  1.738   0.1738        
  18.28  1.741   0.17410001    
  18.3   1.745   0.1745        
  18.32  1.749   0.1749        
  18.34  1.754   0.17539999    
  18.36  1.758   0.1758        
  18.38  1.762   0.1762        
  18.4   1.766   0.17660001    
  18.42  1.771   0.1771        
  18.44  1.776   0.1776        
  18.46  1.783   0.1783        
  18.48  1.791   0.1791        
  18.5   1.801   0.1801        
  18.52  1.813   0.1813        
  18.54  1.831   0.1831        
  18.56  1.858   0.1858        
  18.58  1.9     0.19          
  18.6   1.961   0.1961        
  18.62  2.046   0.2046        
  18.64  2.154   0.21540001    
  18.66  2.279   0.2279        
  18.68  2.406   0.24059999    
  18.7   2.511   0.2511        
  18.72  2.572   0.2572        
  18.74  2.573   0.2573        
  18.76  2.512   0.25120002    
  18.78  2.404   0.2404        
  18.8   2.275   0.2275        
  18.82  2.152   0.21519999    
  18.84  2.054   0.20539999    
  18.86  1.99    0.199         
  18.88  1.955   0.1955        
  18.9   1.943   0.1943        
  18.92  1.944   0.1944        
  18.94  1.951   0.1951        
  18.96  1.958   0.19579999    
  18.98  1.965   0.1965        
  19.0   1.969   0.1969        
  19.02  1.973   0.1973        
  19.04  1.976   0.19759999    
  19.06  1.98    0.198         
  19.08  1.984   0.19839999    
  19.1   1.987   0.1987        
  19.12  1.99    0.199         
  19.14  1.994   0.1994        
  19.16  1.998   0.1998        
  19.18  2.002   0.2002        
  19.2   2.007   0.2007        
  19.22  2.013   0.2013        
  19.24  2.019   0.2019        
  19.26  2.024   0.2024        
  19.28  2.029   0.2029        
  19.3   2.034   0.20339999    
  19.32  2.039   0.20390001    
  19.34  2.044   0.20439999    
  19.36  2.05    0.205         
  19.38  2.057   0.2057        
  19.4   2.064   0.20639999    
  19.42  2.072   0.2072        
  19.44  2.079   0.2079        
  19.46  2.086   0.2086        
  19.48  2.093   0.2093        
  19.5   2.1     0.21          
  19.52  2.107   0.2107        
  19.54  2.116   0.21159999    
  19.56  2.124   0.2124        
  19.58  2.132   0.2132        
  19.6   2.139   0.2139        
  19.62  2.146   0.2146        
  19.64  2.152   0.21519999    
  19.66  2.158   0.2158        
  19.68  2.164   0.2164        
  19.7   2.17    0.21700001    
  19.72  2.176   0.21760002    
  19.74  2.183   0.21830001    
  19.76  2.19    0.21900001    
  19.78  2.198   0.2198        
  19.8   2.206   0.22060001    
  19.82  2.214   0.2214        
  19.84  2.221   0.22209999    
  19.86  2.229   0.2229        
  19.88  2.236   0.2236        
  19.9   2.244   0.2244        
  19.92  2.252   0.22520001    
  19.94  2.26    0.226         
  19.96  2.266   0.2266        
  19.98  2.271   0.22709998    
  20.0   2.276   0.22760001    
  20.02  2.282   0.2282        
  20.04  2.288   0.22880001    
  20.06  2.296   0.2296        
  20.08  2.304   0.2304        
  20.1   2.312   0.23120001    
  20.12  2.32    0.232         
  20.14  2.327   0.23269999    
  20.16  2.333   0.2333        
  20.18  2.339   0.2339        
  20.2   2.345   0.2345        
  20.22  2.352   0.2352        
  20.24  2.358   0.2358        
  20.26  2.365   0.2365        
  20.28  2.372   0.23719999    
  20.3   2.379   0.23789999    
  20.32  2.386   0.23859999    
  20.34  2.393   0.23929998    
  20.36  2.4     0.24000001    
  20.38  2.407   0.2407        
  20.4   2.415   0.24149999    
  20.42  2.423   0.2423        
  20.44  2.432   0.24319999    
  20.46  2.441   0.2441        
  20.48  2.451   0.24509999    
  20.5   2.461   0.2461        
  20.52  2.471   0.2471        
  20.54  2.48    0.248         
  20.56  2.49    0.249         
  20.58  2.498   0.2498        
  20.6   2.507   0.2507        
  20.62  2.515   0.2515        
  20.64  2.524   0.25239998    
  20.66  2.532   0.2532        
  20.68  2.54    0.254         
  20.7   2.548   0.25480002    
  20.72  2.556   0.2556        
  20.74  2.564   0.2564        
  20.76  2.572   0.2572        
  20.78  2.579   0.2579        
  20.8   2.587   0.25869998    
  20.82  2.594   0.2594        
  20.84  2.601   0.2601        
  20.86  2.607   0.26070002    
  20.88  2.613   0.2613        
  20.9   2.619   0.2619        
  20.92  2.625   0.2625        
  20.94  2.631   0.2631        
  20.96  2.638   0.2638        
  20.98  2.646   0.26459998    
  21.0   2.655   0.2655        
  21.02  2.664   0.2664        
  21.04  2.674   0.2674        
  21.06  2.684   0.2684        
  21.08  2.695   0.2695        
  21.1   2.705   0.2705        
  21.12  2.716   0.2716        
  21.14  2.726   0.2726        
  21.16  2.735   0.2735        
  21.18  2.744   0.2744        
  21.2   2.753   0.2753        
  21.22  2.761   0.27609998    
  21.24  2.768   0.27679998    
  21.26  2.776   0.2776        
  21.28  2.783   0.2783        
  21.3   2.791   0.2791        
  21.32  2.798   0.2798        
  21.34  2.806   0.2806        
  21.36  2.814   0.2814        
  21.38  2.822   0.2822        
  21.4   2.83    0.283         
  21.42  2.838   0.2838        
  21.44  2.846   0.2846        
  21.46  2.855   0.2855        
  21.48  2.864   0.28640002    
  21.5   2.872   0.2872        
  21.52  2.882   0.2882        
  21.54  2.891   0.2891        
  21.56  2.901   0.2901        
  21.58  2.91    0.291         
  21.6   2.92    0.292         
  21.62  2.93    0.293         
  21.64  2.939   0.29389998    
  21.66  2.949   0.2949        
  21.68  2.958   0.2958        
  21.7   2.967   0.2967        
  21.72  2.977   0.2977        
  21.74  2.986   0.29860002    
  21.76  2.995   0.2995        
  21.78  3.004   0.3004        
  21.8   3.013   0.3013        
  21.82  3.023   0.3023        
  21.84  3.032   0.3032        
  21.86  3.042   0.3042        
  21.88  3.052   0.3052        
  21.9   3.061   0.3061        
  21.92  3.071   0.3071        
  21.94  3.08    0.308         
  21.96  3.089   0.3089        
  21.98  3.098   0.3098        
  22.0   3.107   0.3107        
  22.02  3.116   0.3116        
  22.04  3.124   0.3124        
  22.06  3.133   0.31329998    
  22.08  3.141   0.3141        
  22.1   3.149   0.31489998    
  22.12  3.158   0.3158        
  22.14  3.166   0.3166        
  22.16  3.174   0.3174        
  22.18  3.183   0.3183        
  22.2   3.191   0.3191        
  22.22  3.2     0.32          
  22.24  3.209   0.32090002    
  22.26  3.218   0.3218        
  22.28  3.226   0.3226        
  22.3   3.235   0.32349998    
  22.32  3.244   0.3244        
  22.34  3.254   0.3254        
  22.36  3.263   0.3263        
  22.38  3.273   0.3273        
  22.4   3.284   0.3284        
  22.42  3.294   0.3294        
  22.44  3.305   0.3305        
  22.46  3.316   0.3316        
  22.48  3.327   0.33269998    
  22.5   3.339   0.3339        
  22.52  3.35    0.33499998    
  22.54  3.36    0.336         
  22.56  3.37    0.33699998    
  22.58  3.38    0.338         
  22.6   3.389   0.3389        
  22.62  3.398   0.3398        
  22.64  3.407   0.3407        
  22.66  3.415   0.34149998    
  22.68  3.424   0.3424        
  22.7   3.432   0.3432        
  22.72  3.442   0.3442        
  22.74  3.452   0.3452        
  22.76  3.462   0.3462        
  22.78  3.474   0.3474        
  22.8   3.486   0.3486        
  22.82  3.499   0.3499        
  22.84  3.511   0.3511        
  22.86  3.524   0.3524        
  22.88  3.537   0.35369998    
  22.9   3.549   0.3549        
  22.92  3.56    0.356         
  22.94  3.571   0.3571        
  22.96  3.581   0.3581        
  22.98  3.59    0.359         
  23.0   3.599   0.3599        
  23.02  3.607   0.3607        
  23.04  3.614   0.3614        
  23.06  3.622   0.3622        
  23.08  3.63    0.363         
  23.1   3.638   0.3638        
  23.12  3.647   0.36470002    
  23.14  3.656   0.3656        
  23.16  3.665   0.3665        
  23.18  3.676   0.36760002    
  23.2   3.686   0.3686        
  23.22  3.697   0.3697        
  23.24  3.708   0.3708        
  23.26  3.719   0.37190002    
  23.28  3.73    0.373         
  23.3   3.741   0.3741        
  23.32  3.751   0.3751        
  23.34  3.762   0.37620002    
  23.36  3.771   0.3771        
  23.38  3.781   0.37809998    
  23.4   3.791   0.3791        
  23.42  3.801   0.3801        
  23.44  3.811   0.3811        
  23.46  3.821   0.38210002    
  23.48  3.831   0.3831        
  23.5   3.842   0.3842        
  23.52  3.853   0.38529998    
  23.54  3.864   0.3864        
  23.56  3.875   0.3875        
  23.58  3.885   0.3885        
  23.6   3.896   0.38959998    
  23.62  3.906   0.3906        
  23.64  3.916   0.39159998    
  23.66  3.926   0.3926        
  23.68  3.935   0.3935        
  23.7   3.944   0.3944        
  23.72  3.953   0.3953        
  23.74  3.962   0.3962        
  23.76  3.971   0.3971        
  23.78  3.98    0.398         
  23.8   3.99    0.399         
  23.82  3.999   0.39990002    
  23.84  4.009   0.40089998    
  23.86  4.019   0.4019        
  23.88  4.029   0.40289998    
  23.9   4.039   0.4039        
  23.92  4.048   0.4048        
  23.94  4.058   0.4058        
  23.96  4.068   0.40679997    
  23.98  4.078   0.40780002    
  24.0   4.088   0.40879998    
  24.02  4.098   0.4098        
  24.04  4.108   0.41079998    
  24.06  4.118   0.4118        
  24.08  4.128   0.41279998    
  24.1   4.138   0.4138        
  24.12  4.148   0.4148        
  24.14  4.158   0.4158        
  24.16  4.167   0.41669998    
  24.18  4.177   0.4177        
  24.2   4.187   0.41869998    
  24.22  4.197   0.4197        
  24.24  4.206   0.4206        
  24.26  4.216   0.4216        
  24.28  4.225   0.42249998    
  24.3   4.234   0.4234        
  24.32  4.244   0.4244        
  24.34  4.253   0.42529997    
  24.36  4.262   0.4262        
  24.38  4.271   0.4271        
  24.4   4.28    0.42800003    
  24.42  4.289   0.4289        
  24.44  4.298   0.42979997    
  24.46  4.307   0.4307        
  24.48  4.317   0.4317        
  24.5   4.326   0.43260002    
  24.52  4.336   0.4336        
  24.54  4.346   0.43460003    
  24.56  4.356   0.43559998    
  24.58  4.365   0.43649998    
  24.6   4.375   0.4375        
  24.62  4.385   0.43850002    
  24.64  4.395   0.4395        
  24.66  4.405   0.44050002    
  24.68  4.415   0.4415        
  24.7   4.425   0.44250003    
  24.72  4.435   0.44349998    
  24.74  4.445   0.44450003    
  24.76  4.456   0.44559997    
  24.78  4.467   0.4467        
  24.8   4.478   0.4478        
  24.82  4.489   0.44889998    
  24.84  4.501   0.4501        
  24.86  4.512   0.4512        
  24.88  4.523   0.45229998    
  24.9   4.534   0.4534        
  24.92  4.545   0.45450002    
  24.94  4.556   0.45560002    
  24.96  4.566   0.4566        
  24.98  4.576   0.45760003    
  25.0   4.586   0.45859998    
  25.02  4.596   0.45960003    
  25.04  4.607   0.46069998    
  25.06  4.617   0.46170002    
  25.08  4.628   0.46279997    
  25.1   4.64    0.464         
  25.12  4.652   0.4652        
  25.14  4.664   0.4664        
  25.16  4.677   0.4677        
  25.18  4.691   0.4691        
  25.2   4.704   0.4704        
  25.22  4.718   0.4718        
  25.24  4.732   0.4732        
  25.26  4.745   0.4745        
  25.28  4.758   0.47579998    
  25.3   4.772   0.47719997    
  25.32  4.784   0.4784        
  25.34  4.797   0.4797        
  25.36  4.81    0.481         
  25.38  4.822   0.4822        
  25.4   4.835   0.4835        
  25.42  4.847   0.48470002    
  25.44  4.86    0.486         
  25.46  4.872   0.48720002    
  25.48  4.884   0.48839998    
  25.5   4.897   0.4897        
  25.52  4.909   0.49089998    
  25.54  4.922   0.4922        
  25.56  4.934   0.4934        
  25.58  4.947   0.4947        
  25.6   4.961   0.4961        
  25.62  4.975   0.4975        
  25.64  4.99    0.49899998    
  25.66  5.006   0.5006        
  25.68  5.023   0.50229996    
  25.7   5.041   0.50409997    
  25.72  5.061   0.5061        
  25.74  5.083   0.5083        
  25.76  5.106   0.5106        
  25.78  5.13    0.513         
  25.8   5.155   0.5155        
  25.82  5.18    0.518         
  25.84  5.205   0.5205        
  25.86  5.229   0.5229        
  25.88  5.251   0.5251        
  25.9   5.271   0.52709997    
  25.92  5.288   0.5288        
  25.94  5.302   0.5302        
  25.96  5.313   0.5313        
  25.98  5.32    0.532         
  26.0   5.325   0.53249997    
  26.02  5.327   0.5327        
  26.04  5.327   0.5327        
  26.06  5.327   0.5327        
  26.08  5.326   0.53260005    
  26.1   5.326   0.53260005    
  26.12  5.326   0.53260005    
  26.14  5.328   0.5328        
  26.16  5.331   0.5331        
  26.18  5.336   0.5336        
  26.2   5.342   0.5342        
  26.22  5.35    0.53499997    
  26.24  5.359   0.5359        
  26.26  5.369   0.5369        
  26.28  5.38    0.538         
  26.3   5.391   0.5391        
  26.32  5.402   0.5402        
  26.34  5.414   0.5414        
  26.36  5.426   0.54260004    
  26.38  5.438   0.5438        
  26.4   5.449   0.5449        
  26.42  5.46    0.546         
  26.44  5.471   0.5471        
  26.46  5.482   0.5482        
  26.48  5.492   0.5492        
  26.5   5.503   0.5503        
  26.52  5.513   0.5513        
  26.54  5.522   0.55219996    
  26.56  5.532   0.5532        
  26.58  5.542   0.5542        
  26.6   5.553   0.5553        
  26.62  5.563   0.55630004    
  26.64  5.574   0.5574        
  26.66  5.585   0.5585        
  26.68  5.597   0.5597        
  26.7   5.608   0.56079996    
  26.72  5.62    0.562         
  26.74  5.631   0.5631        
  26.76  5.643   0.5643        
  26.78  5.655   0.5655        
  26.8   5.667   0.5667        
  26.82  5.68    0.56799996    
  26.84  5.692   0.5692        
  26.86  5.705   0.5705        
  26.88  5.719   0.5719        
  26.9   5.733   0.5733        
  26.92  5.748   0.5748        
  26.94  5.763   0.5763        
  26.96  5.777   0.5777        
  26.98  5.792   0.57919997    
  27.0   5.807   0.58070004    
  27.02  5.822   0.5822        
  27.04  5.836   0.5836        
  27.06  5.85    0.585         
  27.08  5.863   0.5863        
  27.1   5.875   0.5875        
  27.12  5.888   0.5888        
  27.14  5.9     0.59000003    
  27.16  5.912   0.5912        
  27.18  5.925   0.59250003    
  27.2   5.937   0.5937        
  27.22  5.951   0.59510005    
  27.24  5.965   0.59650004    
  27.26  5.979   0.59790003    
  27.28  5.994   0.5994        
  27.3   6.009   0.6009        
  27.32  6.024   0.6024        
  27.34  6.04    0.604         
  27.36  6.055   0.6055        
  27.38  6.071   0.6071        
  27.4   6.086   0.6086        
  27.42  6.1     0.61          
  27.44  6.115   0.61149997    
  27.46  6.129   0.6129        
  27.48  6.143   0.6143        
  27.5   6.157   0.6157        
  27.52  6.171   0.6171        
  27.54  6.184   0.6184        
  27.56  6.198   0.6198        
  27.58  6.213   0.6213        
  27.6   6.227   0.62270004    
  27.62  6.242   0.6242        
  27.64  6.257   0.6257        
  27.66  6.272   0.6272        
  27.68  6.287   0.6287        
  27.7   6.302   0.6302        
  27.72  6.317   0.6317        
  27.74  6.332   0.6332        
  27.76  6.346   0.63460004    
  27.78  6.36    0.63600004    
  27.8   6.373   0.6373        
  27.82  6.386   0.6386        
  27.84  6.398   0.63979995    
  27.86  6.409   0.6409        
  27.88  6.421   0.6421        
  27.9   6.432   0.64320004    
  27.92  6.443   0.6443        
  27.94  6.455   0.6455        
  27.96  6.467   0.6467        
  27.98  6.48    0.648         
